# ED595-1  AO 60mm Dia x 5mm Thick
# ED595 AO MKO Y band 1020/100nm (970-1070nm) 
# NIRI Y-filter G0241 
# Estimated transmission at 65K and 5 AOI
#
# Wavelength(um) Throughput
0.089823	0
0.089848	0.001
0.089873	0.002
0.089898	0
0.089923	0.002
0.089948	0
0.089973	0
0.089998	0
0.090023	0.002
0.090048	0.003
0.090073	0
0.090098	0.002
0.090123	0
0.090148	0.002
0.090173	0
0.090198	0
0.090223	0.001
0.090248	0
0.090273	0.003
0.090298	0
0.090323	0
0.090348	0
0.090373	0
0.090398	0.001
0.090423	0.003
0.090447	0.003
0.090472	0
0.090497	0.001
0.090522	0.002
0.090547	0
0.090572	0
0.090597	0.001
0.090622	0
0.090647	0
0.090672	0.001
0.090697	0.001
0.090722	0.001
0.090747	0.002
0.090772	0
0.090797	0
0.090822	0
0.090847	0
0.090872	0
0.090897	0.002
0.090922	0
0.090947	0
0.090972	0
0.090997	0.001
0.091022	0
0.091047	0.001
0.091072	0.001
0.091097	0.002
0.091122	0
0.091147	0.002
0.091172	0
0.091197	0.003
0.091222	0
0.091247	0
0.091272	0.003
0.091297	0
0.091322	0
0.091347	0.002
0.091372	0
0.091397	0
0.091422	0.001
0.091447	0.002
0.091472	0
0.091497	0
0.091522	0.003
0.091547	0.002
0.091572	0
0.091597	0
0.091622	0
0.091647	0
0.091672	0
0.091697	0
0.091722	0
0.091747	0.003
0.091772	0
0.091797	0.001
0.091822	0.003
0.091847	0
0.091872	0.002
0.091897	0.001
0.091922	0.001
0.091947	0
0.091972	0.001
0.091997	0.001
0.092022	0
0.092047	0.002
0.092072	0.002
0.092097	0
0.092122	0.002
0.092147	0
0.092172	0
0.092197	0.001
0.092222	0
0.092247	0.001
0.092272	0
0.092297	0.003
0.092322	0
0.092347	0.003
0.092372	0.002
0.092396	0
0.092421	0.003
0.092446	0
0.092471	0.003
0.092496	0.004
0.092521	0.003
0.092546	0.007
0.092571	0.003
0.092596	0.002
0.092621	0.004
0.092646	0.003
0.092671	0.005
0.092696	0.001
0.092721	0.004
0.092746	0.001
0.092771	0
0.092796	0.001
0.092821	0.004
0.092846	0.002
0.092871	0.004
0.092896	0.003
0.092921	0.002
0.092946	0.004
0.092971	0.007
0.092996	0.001
0.093021	0.008
0.093046	0.004
0.093071	0.002
0.093096	0.005
0.093121	0.006
0.093146	0.003
0.093171	0.004
0.093196	0.005
0.093221	0.005
0.093246	0.003
0.093271	0.004
0.093296	0.008
0.093321	0.007
0.093346	0.006
0.093371	0.008
0.093396	0.002
0.093421	0.008
0.093446	0.007
0.093471	0.003
0.093496	0.009
0.093521	0.007
0.093546	0.008
0.093571	0.006
0.093596	0.008
0.093621	0.009
0.093646	0.008
0.093671	0.01
0.093696	0.01
0.093721	0.008
0.093746	0.009
0.093771	0.01
0.093796	0.011
0.093821	0.011
0.093846	0.013
0.093871	0.012
0.093896	0.014
0.093921	0.013
0.093946	0.014
0.093971	0.017
0.093996	0.016
0.094021	0.016
0.094046	0.015
0.094071	0.021
0.094096	0.017
0.094121	0.024
0.094146	0.023
0.094171	0.024
0.094196	0.022
0.094221	0.025
0.094246	0.025
0.094271	0.031
0.094296	0.025
0.094321	0.03
0.094345	0.03
0.09437	0.033
0.094395	0.036
0.09442	0.036
0.094445	0.039
0.09447	0.043
0.094495	0.043
0.09452	0.048
0.094545	0.048
0.09457	0.054
0.094595	0.06
0.09462	0.06
0.094645	0.063
0.09467	0.063
0.094695	0.071
0.09472	0.076
0.094745	0.079
0.09477	0.084
0.094795	0.088
0.09482	0.096
0.094845	0.105
0.09487	0.108
0.094895	0.119
0.09492	0.126
0.094945	0.132
0.09497	0.141
0.094995	0.15
0.09502	0.159
0.095045	0.169
0.09507	0.177
0.095095	0.192
0.09512	0.203
0.095145	0.215
0.09517	0.233
0.095195	0.243
0.09522	0.26
0.095245	0.274
0.09527	0.293
0.095295	0.31
0.09532	0.323
0.095345	0.35
0.09537	0.364
0.095395	0.389
0.09542	0.419
0.095445	0.44
0.09547	0.465
0.095495	0.49
0.09552	0.525
0.095545	0.552
0.09557	0.583
0.095595	0.62
0.09562	0.66
0.095645	0.696
0.09567	0.734
0.095695	0.789
0.09572	0.831
0.095745	0.875
0.09577	0.935
0.095795	0.991
0.09582	1.06
0.095845	1.118
0.09587	1.204
0.095895	1.269
0.09592	1.347
0.095945	1.445
0.09597	1.536
0.095995	1.648
0.09602	1.746
0.096045	1.882
0.09607	2
0.096095	2.133
0.09612	2.314
0.096145	2.457
0.09617	2.638
0.096195	2.822
0.09622	3.045
0.096245	3.252
0.09627	3.476
0.096295	3.791
0.096319	4.041
0.096344	4.35
0.096369	4.674
0.096394	5.039
0.096419	5.408
0.096444	5.776
0.096469	6.309
0.096494	6.729
0.096519	7.229
0.096544	7.794
0.096569	8.372
0.096594	8.996
0.096619	9.615
0.096644	10.445
0.096669	11.117
0.096694	11.904
0.096719	12.839
0.096744	13.695
0.096769	14.69
0.096794	15.634
0.096819	16.854
0.096844	17.872
0.096869	18.996
0.096894	20.419
0.096919	21.616
0.096944	23.014
0.096969	24.332
0.096994	25.915
0.097019	27.276
0.097044	28.728
0.097069	30.591
0.097094	32.033
0.097119	33.76
0.097144	35.384
0.097169	37.173
0.097194	38.791
0.097219	40.397
0.097244	42.464
0.097269	43.95
0.097294	45.699
0.097319	47.445
0.097344	49.17
0.097369	50.809
0.097394	52.325
0.097419	54.239
0.097444	55.581
0.097469	57.117
0.097494	58.628
0.097519	60.051
0.097544	61.451
0.097569	62.637
0.097594	64.105
0.097619	65.129
0.097644	66.222
0.097669	67.365
0.097694	68.295
0.097719	69.248
0.097744	70.039
0.097769	70.927
0.097794	71.558
0.097819	72.201
0.097844	72.873
0.097869	73.371
0.097894	73.88
0.097919	74.3
0.097944	74.716
0.097969	75.023
0.097994	75.307
0.098019	75.623
0.098044	75.813
0.098069	76.008
0.098094	76.167
0.098119	76.309
0.098144	76.418
0.098169	76.502
0.098194	76.601
0.098219	76.651
0.098244	76.707
0.098268	76.752
0.098293	76.787
0.098318	76.824
0.098343	76.853
0.098368	76.889
0.098393	76.91
0.098418	76.95
0.098443	76.983
0.098468	77.024
0.098493	77.067
0.098518	77.104
0.098543	77.16
0.098568	77.214
0.098593	77.265
0.098618	77.33
0.098643	77.396
0.098668	77.468
0.098693	77.531
0.098718	77.619
0.098743	77.674
0.098768	77.753
0.098793	77.84
0.098818	77.909
0.098843	77.981
0.098868	78.055
0.098893	78.149
0.098918	78.212
0.098943	78.273
0.098968	78.356
0.098993	78.422
0.099018	78.495
0.099043	78.561
0.099068	78.624
0.099093	78.687
0.099118	78.735
0.099143	78.803
0.099168	78.856
0.099193	78.903
0.099218	78.959
0.099243	79.003
0.099268	79.041
0.099293	79.076
0.099318	79.128
0.099343	79.164
0.099368	79.196
0.099393	79.234
0.099418	79.248
0.099443	79.269
0.099468	79.294
0.099493	79.304
0.099518	79.325
0.099543	79.335
0.099568	79.34
0.099593	79.336
0.099618	79.333
0.099643	79.333
0.099668	79.326
0.099693	79.317
0.099718	79.306
0.099743	79.269
0.099768	79.245
0.099793	79.221
0.099818	79.179
0.099843	79.149
0.099868	79.117
0.099893	79.072
0.099918	79.007
0.099943	78.972
0.099968	78.919
0.099993	78.861
0.100018	78.811
0.100043	78.761
0.100068	78.705
0.100093	78.644
0.100118	78.589
0.100143	78.538
0.100168	78.487
0.100193	78.433
0.100217	78.385
0.100242	78.349
0.100267	78.301
0.100292	78.273
0.100317	78.237
0.100342	78.214
0.100367	78.184
0.100392	78.166
0.100417	78.15
0.100442	78.142
0.100467	78.148
0.100492	78.157
0.100517	78.161
0.100542	78.178
0.100567	78.213
0.100592	78.24
0.100617	78.279
0.100642	78.32
0.100667	78.369
0.100692	78.414
0.100717	78.485
0.100742	78.557
0.100767	78.63
0.100792	78.711
0.100817	78.783
0.100842	78.859
0.100867	78.965
0.100892	79.043
0.100917	79.137
0.100942	79.241
0.100967	79.331
0.100992	79.43
0.101017	79.508
0.101042	79.627
0.101067	79.707
0.101092	79.803
0.101117	79.893
0.101142	79.971
0.101167	80.066
0.101192	80.122
0.101217	80.212
0.101242	80.278
0.101267	80.325
0.101292	80.389
0.101317	80.431
0.101342	80.472
0.101367	80.506
0.101392	80.545
0.101417	80.558
0.101442	80.567
0.101467	80.575
0.101492	80.567
0.101517	80.551
0.101542	80.545
0.101567	80.527
0.101592	80.502
0.101617	80.455
0.101642	80.423
0.101667	80.38
0.101692	80.335
0.101717	80.281
0.101742	80.219
0.101767	80.163
0.101792	80.101
0.101817	80.044
0.101842	79.991
0.101867	79.923
0.101892	79.869
0.101917	79.808
0.101942	79.76
0.101967	79.716
0.101992	79.668
0.102017	79.631
0.102042	79.59
0.102067	79.575
0.102092	79.547
0.102117	79.536
0.102142	79.532
0.102166	79.533
0.102191	79.539
0.102216	79.576
0.102241	79.612
0.102266	79.657
0.102291	79.707
0.102316	79.77
0.102341	79.846
0.102366	79.919
0.102391	80.001
0.102416	80.116
0.102441	80.208
0.102466	80.322
0.102491	80.442
0.102516	80.566
0.102541	80.694
0.102566	80.803
0.102591	80.966
0.102616	81.088
0.102641	81.218
0.102666	81.345
0.102691	81.482
0.102716	81.6
0.102741	81.714
0.102766	81.863
0.102791	81.964
0.102816	82.068
0.102841	82.169
0.102866	82.26
0.102891	82.339
0.102916	82.408
0.102941	82.487
0.102966	82.532
0.102991	82.574
0.103016	82.601
0.103041	82.623
0.103066	82.643
0.103091	82.64
0.103116	82.625
0.103141	82.598
0.103166	82.57
0.103191	82.523
0.103216	82.468
0.103241	82.403
0.103266	82.335
0.103291	82.23
0.103316	82.159
0.103341	82.068
0.103366	81.941
0.103391	81.841
0.103416	81.718
0.103441	81.605
0.103466	81.446
0.103491	81.327
0.103516	81.209
0.103541	81.047
0.103566	80.924
0.103591	80.785
0.103616	80.649
0.103641	80.512
0.103666	80.394
0.103691	80.286
0.103716	80.133
0.103741	80.042
0.103766	79.936
0.103791	79.84
0.103816	79.751
0.103841	79.68
0.103866	79.628
0.103891	79.57
0.103916	79.53
0.103941	79.511
0.103966	79.503
0.103991	79.504
0.104016	79.521
0.104041	79.551
0.104066	79.608
0.104091	79.653
0.104116	79.725
0.10414	79.818
0.104165	79.909
0.10419	80.033
0.104215	80.141
0.10424	80.286
0.104265	80.419
0.10429	80.553
0.104315	80.733
0.10434	80.891
0.104365	81.062
0.10439	81.233
0.104415	81.423
0.10444	81.598
0.104465	81.762
0.10449	81.976
0.104515	82.138
0.10454	82.314
0.104565	82.494
0.10459	82.669
0.104615	82.846
0.10464	82.991
0.104665	83.176
0.10469	83.311
0.104715	83.452
0.10474	83.591
0.104765	83.725
0.10479	83.853
0.104815	83.952
0.10484	84.075
0.104865	84.157
0.10489	84.246
0.104915	84.324
0.10494	84.4
0.104965	84.46
0.10499	84.503
0.105015	84.558
0.10504	84.583
0.105065	84.618
0.10509	84.626
0.105115	84.639
0.10514	84.638
0.105165	84.632
0.10519	84.617
0.105215	84.609
0.10524	84.581
0.105265	84.544
0.10529	84.509
0.105315	84.469
0.10534	84.424
0.105365	84.357
0.10539	84.312
0.105415	84.255
0.10544	84.184
0.105465	84.118
0.10549	84.04
0.105515	83.975
0.10554	83.891
0.105565	83.817
0.10559	83.739
0.105615	83.637
0.10564	83.562
0.105665	83.485
0.10569	83.398
0.105715	83.309
0.10574	83.23
0.105765	83.14
0.10579	83.033
0.105815	82.959
0.10584	82.866
0.105865	82.769
0.10589	82.671
0.105915	82.579
0.10594	82.486
0.105965	82.373
0.10599	82.276
0.106015	82.175
0.10604	82.038
0.106065	81.924
0.106089	81.783
0.106114	81.643
0.106139	81.479
0.106164	81.314
0.106189	81.117
0.106214	80.867
0.106239	80.643
0.106264	80.347
0.106289	80.057
0.106314	79.654
0.106339	79.287
0.106364	78.868
0.106389	78.267
0.106414	77.761
0.106439	77.102
0.106464	76.409
0.106489	75.592
0.106514	74.777
0.106539	73.935
0.106564	72.709
0.106589	71.758
0.106614	70.517
0.106639	69.242
0.106664	67.867
0.106689	66.437
0.106714	65.061
0.106739	63.146
0.106764	61.719
0.106789	59.988
0.106814	58.164
0.106839	56.346
0.106864	54.432
0.106889	52.698
0.106914	50.44
0.106939	48.779
0.106964	46.9
0.106989	44.826
0.107014	43.014
0.107039	41.02
0.107064	39.292
0.107089	37.219
0.107114	35.618
0.107139	33.952
0.107164	32.034
0.107189	30.525
0.107214	28.846
0.107239	27.377
0.107264	25.78
0.107289	24.467
0.107314	23.193
0.107339	21.639
0.107364	20.538
0.107389	19.289
0.107414	18.188
0.107439	17.047
0.107464	16.075
0.107489	15.169
0.107514	14.048
0.107539	13.278
0.107564	12.437
0.107589	11.651
0.107614	10.914
0.107639	10.205
0.107664	9.599
0.107689	8.849
0.107714	8.337
0.107739	7.791
0.107764	7.249
0.107789	6.782
0.107814	6.314
0.107839	5.916
0.107864	5.456
0.107889	5.121
0.107914	4.788
0.107939	4.434
0.107964	4.151
0.107989	3.857
0.108014	3.614
0.108038	3.338
0.108063	3.13
0.108088	2.928
0.108113	2.709
0.108138	2.549
0.108163	2.376
0.108188	2.224
0.108213	2.074
0.108238	1.943
0.108263	1.829
0.108288	1.696
0.108313	1.604
0.108338	1.502
0.108363	1.41
0.108388	1.327
0.108413	1.25
0.108438	1.178
0.108463	1.098
0.108488	1.043
0.108513	0.988
0.108538	0.93
0.108563	0.88
0.108588	0.83
0.108613	0.79
0.108638	0.738
0.108663	0.705
0.108688	0.673
0.108713	0.633
0.108738	0.602
0.108763	0.572
0.108788	0.546
0.108813	0.511
0.108838	0.491
0.108863	0.463
0.108888	0.439
0.108913	0.421
0.108938	0.397
0.108963	0.381
0.108988	0.359
0.109013	0.344
0.109038	0.327
0.109063	0.31
0.109088	0.296
0.109113	0.28
0.109138	0.269
0.109163	0.257
0.109188	0.242
0.109213	0.233
0.109238	0.216
0.109263	0.21
0.109288	0.198
0.109313	0.189
0.109338	0.182
0.109363	0.17
0.109388	0.165
0.109413	0.151
0.109438	0.147
0.109463	0.143
0.109488	0.134
0.109513	0.13
0.109538	0.123
0.109563	0.118
0.109588	0.111
0.109613	0.106
0.109638	0.106
0.109663	0.098
0.109688	0.094
0.109713	0.091
0.109738	0.089
0.109763	0.084
0.109788	0.081
0.109813	0.076
0.109838	0.076
0.109863	0.074
0.109888	0.07
0.109913	0.069
0.109938	0.064
0.109963	0.059
0.109988	0.06
0.110012	0.058
0.110037	0.059
0.110062	0.056
0.110087	0.056
0.110112	0.053
0.110137	0.053
0.110162	0.051
0.110187	0.049
0.110212	0.048
0.110237	0.045
0.110262	0.046
0.110287	0.042
0.110312	0.047
0.110337	0.045
0.110362	0.042
0.110387	0.043
0.110412	0.041
0.110437	0.035
0.110462	0.037
0.110487	0.036
0.110512	0.037
0.110537	0.037
0.110562	0.032
0.110587	0.032
0.110612	0.032
0.110637	0.036
0.110662	0.032
0.110687	0.027
0.110712	0.027
0.110737	0.028
0.110762	0.023
0.110787	0.027
0.110812	0.022
0.110837	0.022
0.110862	0.022
0.110887	0.022
0.110912	0.02
0.110937	0.018
0.110962	0.018
0.110987	0.017
0.111012	0.018
0.111037	0.014
0.111062	0.015
0.111087	0.015
0.111112	0.015
0.111137	0.014
0.111162	0.014
0.111187	0.014
0.111212	0.014
0.111237	0.01
0.111262	0.011
0.111287	0.013
0.111312	0.009
0.111337	0.008
0.111362	0.008
0.111387	0.005
0.111412	0.007
0.111437	0.008
0.111462	0.006
0.111487	0.007
0.111512	0.009
0.111537	0.004
0.111562	0.006
0.111587	0.006
0.111612	0.009
0.111637	0.007
0.111662	0.004
0.111687	0.003
0.111712	0.006
0.111737	0.002
0.111762	0.002
0.111787	0.003
0.111812	0.003
0.111837	0.006
0.111862	0.005
0.111887	0.004
0.111912	0.003
0.111937	0
0.111961	0.002
0.111986	0.007
0.112011	0.007
0.112036	0.008
0.112061	0.006
0.112086	0.002
0.112111	0.002
0.112136	0.006
0.112161	0.002
0.112186	0.005
0.112211	0.002
0.112236	0.006
0.112261	0.005
0.112286	0.003
0.112311	0
0.112336	0.003
0.112361	0.004
0.112386	0.002
0.112411	0.001
0.112436	0.001
0.112461	0.001
0.112486	0.005
0.112511	0.003
0.112536	0.001
0.112561	0.008
0.112586	0.003
0.112611	0.005
0.112636	0
0.112661	0.006
0.112686	0.003
0.112711	0.003
0.112736	0.005
0.112761	0.004
0.112786	0
0.112811	0.004
0.112836	0.001
0.112861	0.004
0.112886	0.001
0.112911	0.002
0.112936	0
0.112961	0.005
0.112986	0.002
0.113011	0.002
0.113036	0
0.113061	0.004
0.113086	0
0.113111	0.002
0.113136	0.004
0.113161	0.004
0.113186	0.002
0.113211	0.003
0.113236	0.002
0.113261	0.001
0.113286	0.004
0.113311	0.004
0.113336	0
0.113361	0
0.113386	0.001
0.113411	0
0.113436	0.001
0.113461	0.001
0.113486	0.001
0.113511	0.001
0.113536	0.002
0.113561	0
0.113586	0.002
0.113611	0.002
0.113636	0.001
0.113661	0.002
0.113686	0
0.113711	0.002
0.113736	0
0.113761	0
0.113786	0.002
0.113811	0
0.113836	0
0.113861	0
0.113886	0.001
0.11391	0
0.113935	0
0.11396	0.001
0.113985	0
0.11401	0.002
0.114035	0.001
0.11406	0.001
0.114085	0
0.11411	0
0.114135	0
0.11416	0
0.114185	0.002
0.11421	0
0.114235	0
0.11426	0.001
0.114285	0
0.11431	0.001
0.114335	0
0.11436	0
0.114385	0.004
0.11441	0
0.114435	0
0.11446	0
0.114485	0.001
0.11451	0
0.114535	0.001
0.11456	0.001
0.114585	0
0.11461	0
0.114635	0
0.11466	0
0.114685	0.001
0.11471	0
0.114735	0
0.11476	0
0.114785	0
0.11481	0

